File: V6_SAXS/data/profiles/Frontscattering_Si_powder.txt
133.3333	14664.4
666.6667	15032.5
1200	14828.6
1733.33	15646.2
2266.67	17454.9
2800	18215.6
3333.33	18859.8
3866.67	20078.4
4400	21318
4933.33	22362.1
5466.67	23355.9
6000	24808.1
6533.33	26351.6
7066.67	26991.8
7600	27618.4
8133.33	28176.7
8666.67	27957.6
9200	28260.3
9733.33	28472.3
10266.7	28850.2
10800	28559.9
11333.3	28318.1
11866.7	28186.9
12400	27999.2
12933.3	27602.5
13466.7	27092.7
14000	26869.3
14533.3	26829.9
15066.7	26581.9
15600	26359.9
16133.3	26624.1
16666.7	26724.2
17200	26148.8
17733.3	26004.3
18266.7	26196.2
18800	26192
19333.3	26188.6
19866.7	26234.6
20400	26174.1
20933.3	26112
21466.7	26277.8
22000	26839.1
22533.3	28181.9
23066.7	28309.3
23600	26952.8
24133.3	26261.3
24666.7	26137.3
25200	26009
25733.3	25974.6
26266.7	25884.9
26800	25882.4
27333.3	26531.2
27866.7	26775.3
28400	26439.9
28933.3	26268.9
29466.7	25904.3
30000	25173.8
30533.3	24852.3
31066.7	24392.3
31600	23834.6
32133.3	23586
32666.7	23599
33200	23203.2
33733.3	22923.4
34266.7	22678
34800	22788.6
35333.3	22909.2
35866.7	22449.3
36400	22306
36933.3	22183
37466.7	21601
38000	21191.8
38533.3	21001.1
39066.7	20921.2
39600	20698.3
40133.3	20559.6
40666.7	20316.7
41200	20167.3
41733.3	20052.1
42266.7	19958
42800	19700.1
43333.3	19499.9
43866.7	19459.1
44400	19353.3
44933.3	19074.4
45466.7	18921.2
46000	18790.2
46533.3	18737.7
47066.7	18748.8
47600	18692.5
48133.3	18738.4
48666.7	19241.9
49200	19843
49733.3	19368.5
50266.7	18818
50800	18451.8
51333.3	18242.5
51866.7	17938.8
52400	17653.4
52933.3	17467.8
53466.7	17402.6
54000	17231.1
54533.3	17231.4
55066.7	17249.7
55600	17178.1
56133.3	17045.9
56666.7	16769.7
57200	16586.1
57733.3	16450.8
58266.7	16399.5
58800	15933.2
59333.3	15727.4
59866.7	15424.6
60400	15136.7
60933.3	14677.3
61466.7	14239.3
62000	13732.6
62533.3	13477.2
63066.7	13166.7
63600	12579.5
64133.3	12121.7
64666.7	11504.7
65200	10830.5
65733.3	10330.1
66266.7	9867.41
66800	9381.14
67333.3	9090.51
67866.7	8826.14
68400	8470.7
68933.3	8327.57
69466.7	8063.55
70000	7794.5
70533.3	7609.22
71066.7	7447.12
71600	7225.03
72133.3	7026.59
72666.7	6849.43
73200	6702.65
73733.3	6645.47
74266.7	6463.02
74800	6333.25
75333.3	6219.48
75866.7	6134.29
76400	6048.59
76933.3	6007.17
77466.7	5853.72
78000	5737.24
78533.3	5734.63
79066.7	5630.22
79600	5562.09
80133.3	5521.42
80666.7	5537.76
81200	5492.21
81733.3	5472.6
82266.7	5436.44
82800	5360.49
83333.3	5331.43
83866.7	5247.53
84400	5224.42
84933.3	5155.57
85466.7	5115
86000	5044.42
86533.3	4955.34
87066.7	4860.05
87600	4766.12
88133.3	4736.13
88666.7	4681.53
89200	4642.16
89733.3	4564.71
90266.7	4518.44
90800	4543.58
91333.3	4505.55
91866.7	4457.39
92400	4358.68
92933.3	4315.32
93466.7	4280.4
94000	4210.36
94533.3	4144.27
95066.7	4103.84
95600	4071.59
96133.3	4017.46
96666.7	4097.89
97200	4079.1
97733.3	4076.11
98266.7	4125.05
98800	4130.05
99333.3	3972.14
99866.7	3860.46
100400	3808.41
100933	3743.57
101467	3656.01
102000	3651.85
102533	3611.46
103067	3545.83
103600	3546.84
104133	3462.63
104667	3428.55
105200	3415.41
105733	3403.22
106267	3351
106800	3374.98
107333	3337.5
107867	3283.39
108400	3279.44
108933	3237.38
109467	3209.9
110000	3165.55
110533	3131.68
111067	3111.36
111600	3100.22
112133	3038.08
112667	3043.1
113200	3012
113733	2973.7
114267	2964.56
114800	2960.51
115333	2935.73
115867	2911.85
116400	2904.64
116933	2852.29
117467	2827.67
118000	2836.9
118533	2776.82
119067	2774.88
119600	2795.78
120133	2751.56
120667	2734.67
121200	2737.59
121733	2710.98
122267	2689.63
122800	2675.53
123333	2630.81
123867	2626.7
124400	2586.69
124933	2527.91
125467	2534.9
126000	2507.84
126533	2517.44
127067	2504.74
127600	2512.29
128133	2500.3
128667	2463.6
129200	2476.22
129733	2439.8
130267	2435.01
130800	2436.1
131333	2437.1
131867	2439.21
132400	2480.61
132933	2547.88
133467	2622.84
134000	2715.58
134533	2647.59
135067	2565.63
135600	2498.73
136133	2392.67
136667	2243.65
137200	2054.8
137733	1880.62
138267	1665.39
138800	1469.46
139333	1350.01
139867	1217.23
140400	1120.61
140933	1059.17
141467	940.2260
142000	849.9816
142533	794.9813
143067	732.1396
143600	663.1270
144133	605.1421
144667	565.5945
145200	511.6774
145733	436.5774
146267	370.6886
146800	323.0204
147333	265.8618
147867	218.6912
148400	158.5788
148933	126.4540
149467	88.7954
150000	2.2907