File: V6_SAXS/data/profiles/Frontscattering_Polymer_stretch.txt
133.3333	16351.4
666.6667	16123.9
1200	16180.2
1733.33	16970.4
2266.67	19355.8
2800	20226.7
3333.33	20940.5
3866.67	22252.2
4400	23614.4
4933.33	24826.9
5466.67	26548.7
6000	28387
6533.33	30236.3
7066.67	31188.3
7600	32114
8133.33	32913.8
8666.67	33591.7
9200	33355.5
9733.33	33331.2
10266.7	33495.9
10800	33416.2
11333.3	33391.3
11866.7	33248.3
12400	32894.9
12933.3	32965.4
13466.7	32770.2
14000	32000.4
14533.3	31493.8
15066.7	31209.1
15600	30871.5
16133.3	30643.7
16666.7	30388.2
17200	30137.5
17733.3	30054.9
18266.7	29808.5
18800	29485
19333.3	29449.9
19866.7	29408.6
20400	29325.7
20933.3	29446.8
21466.7	29502.4
22000	29539.6
22533.3	30052.9
23066.7	31150.2
23600	33179.1
24133.3	35530.8
24666.7	34950
25200	31863.4
25733.3	30692.8
26266.7	30255.8
26800	29719.6
27333.3	29589.2
27866.7	29585.4
28400	29894.7
28933.3	31719.8
29466.7	32908.8
30000	30483
30533.3	28627.1
31066.7	28116.7
31600	28176.9
32133.3	28967.3
32666.7	29215.4
33200	27813.9
33733.3	26850.7
34266.7	26513.9
34800	26267.4
35333.3	26146.4
35866.7	25880.9
36400	25838.9
36933.3	26820.8
37466.7	27574
38000	26929.3
38533.3	27221.8
39066.7	27351.2
39600	25620.1
40133.3	23893.8
40666.7	23206.9
41200	22907.8
41733.3	22637
42266.7	22530.5
42800	22378.9
43333.3	22406.2
43866.7	22393.4
44400	22145.4
44933.3	22019.2
45466.7	22126.5
46000	22214.1
46533.3	21828
47066.7	21263.1
47600	20900.3
48133.3	20815.1
48666.7	20660.2
49200	20675.6
49733.3	20644.1
50266.7	20568.5
50800	20504.9
51333.3	20542.3
51866.7	20589.9
52400	20737.1
52933.3	20817.6
53466.7	20566.9
54000	20093.2
54533.3	19600.8
55066.7	19230.2
55600	18987.4
56133.3	18778
56666.7	18574.5
57200	18438.5
57733.3	18325.7
58266.7	18079.7
58800	17715.7
59333.3	17279.5
59866.7	16856.7
60400	16387
60933.3	16212.5
61466.7	16001.3
62000	15665.4
62533.3	15411.4
63066.7	15195.4
63600	14904.4
64133.3	14496
64666.7	14047.1
65200	13577.8
65733.3	13305.1
66266.7	12983.6
66800	12594
67333.3	12255.3
67866.7	11839.8
68400	11271.2
68933.3	11015.5
69466.7	10730.8
70000	10357
70533.3	10200.7
71066.7	9926.32
71600	9673.78
72133.3	9465.64
72666.7	9318.03
73200	9051.27
73733.3	8928.15
74266.7	8696.58
74800	8521.86
75333.3	8404.3
75866.7	8264.68
76400	8109.1
76933.3	8038.56
77466.7	7914.36
78000	7762.98
78533.3	7706.93
79066.7	7541
79600	7437.58
80133.3	7336.08
80666.7	7258.82
81200	7173.08
81733.3	7100.78
82266.7	7004.8
82800	6956.2
83333.3	6875.8
83866.7	6815.23
84400	6753.86
84933.3	6695.41
85466.7	6676.42
86000	6649.92
86533.3	6625.35
87066.7	6641.16
87600	6665.48
88133.3	6668.39
88666.7	6659.19
89200	6598.01
89733.3	6503.88
90266.7	6418.26
90800	6355.43
91333.3	6198.09
91866.7	6072.75
92400	5959.61
92933.3	5880.47
93466.7	5811.61
94000	5762.12
94533.3	5684.74
95066.7	5623.71
95600	5556.85
96133.3	5478.28
96666.7	5435.63
97200	5373.68
97733.3	5320.59
98266.7	5253.62
98800	5233.86
99333.3	5179.46
99866.7	5139.51
100400	5103.55
100933	5065.69
101467	5017.36
102000	5010.55
102533	4957.89
103067	4905.29
103600	4902.34
104133	4812.38
104667	4772.82
105200	4726.71
105733	4673.76
106267	4632.3
106800	4613.33
107333	4538.57
107867	4493.9
108400	4469.23
108933	4414.91
109467	4410.75
110000	4356.06
110533	4311.17
111067	4282.83
111600	4280.34
112133	4211.09
112667	4207.6
113200	4175.54
113733	4118.56
114267	4082.1
114800	4091.88
115333	4060.09
115867	4006.78
116400	4017.18
116933	3954.31
117467	3937.29
118000	3907.26
118533	3856.28
119067	3831.66
119600	3842.6
120133	3799.69
120667	3765.21
121200	3739.16
121733	3708.72
122267	3700.86
122800	3675.65
123333	3637.19
123867	3600.39
124400	3610.06
124933	3529.96
125467	3526.83
126000	3509.12
126533	3502.07
127067	3451.68
127600	3453.44
128133	3447.34
128667	3413.8
129200	3399.03
129733	3321.14
130267	3325.2
130800	3318.72
131333	3277.88
131867	3258.93
132400	3253.31
132933	3210.67
133467	3200.13
134000	3182.9
134533	3029.84
135067	2928.18
135600	2494.9
136133	2304.01
136667	2101.03
137200	1910.85
137733	1755.74
138267	1645.85
138800	1495.18
139333	1395.94
139867	1300.52
140400	1152.26
140933	1088.79
141467	1006.18
142000	895.6934
142533	827.2467
143067	745.6042
143600	665.1376
144133	583.3797
144667	529.0965
145200	437.8214
145733	368.0159
146267	294.2147
146800	208.8001
147333	169.6617
147867	139.8908
148400	109.0480
148933	80.7782
149467	52.2134
150000	0.5959