File: V6_SAXS/data/profiles/front_SAXS_polymer.txt
133.3333	15799.9
266.6667	15825.6
400.0000	16156.5
533.3333	16233.6
666.6667	16068.6
800.0000	16166.3
933.3333	16104.7
1066.67	16122.4
1200	16242.6
1333.33	16411
1466.67	16374.8
1600	16331.4
1733.33	16537.3
1866.67	16905.3
2000	17624.7
2133.33	18412.6
2266.67	18968.6
2400	19569.9
2533.33	20037.1
2666.67	19993.2
2800	20658.2
2933.33	20450.4
3066.67	20681
3200	20914.1
3333.33	20732.2
3466.67	20916.2
3600	21250.6
3733.33	21546.9
3866.67	21741.5
4000	22244.4
4133.33	22632
4266.67	22927.9
4400	23382.3
4533.33	23683.9
4666.67	24062.8
4800	24575.6
4933.33	24951.3
5066.67	25396.7
5200	25779.1
5333.33	26355.2
5466.67	26807.5
5600	27248.2
5733.33	27875.9
5866.67	28496.1
6000	29262.2
6133.33	29577.6
6266.67	29846.2
6400	30071.5
6533.33	30298.2
6666.67	30445.8
6800	30715.1
6933.33	30894.4
7066.67	31153.1
7200	31451.3
7333.33	31693.3
7466.67	31924.6
7600	32172.5
7733.33	32287.7
7866.67	32507.8
8000	32742.1
8133.33	32934.1
8266.67	33166.1
8400	33370
8533.33	33512.3
8666.67	33588.3
8800	33628.8
8933.33	33548.6
9066.67	33449.6
9200	33407.4
9333.33	33261.6
9466.67	33243.4
9600	33270.4
9733.33	33302.2
9866.67	33400.5
10000	33456.3
10133.3	33569.4
10266.7	33628.9
10400	33629.2
10533.3	33501.8
10666.7	33479.2
10800	33345.5
10933.3	33368.5
11066.7	33369.2
11200	33371.3
11333.3	33389.6
11466.7	33420.9
11600	33381.4
11733.3	33278.6
11866.7	33255.7
12000	33139.1
12133.3	33005.3
12266.7	32964.5
12400	32898.9
12533.3	32871.5
12666.7	32936.8
12800	32891.9
12933.3	32990.2
13066.7	33029
13200	32944.3
13333.3	32901
13466.7	32799.6
13600	32569.2
13733.3	32392.9
13866.7	32181.8
14000	31976.9
14133.3	31777.5
14266.7	31701.3
14400	31565.8
14533.3	31508.1
14666.7	31407.3
14800	31308.6
14933.3	31265.4
15066.7	31221.9
15200	31121.1
15333.3	31082.1
15466.7	31018.2
15600	30347.3