File: V6_SAXS/data/profiles/Gunier_Silicon_pouder.txt
0	793.2373
700	713.7627
1400	2076.1
2100	2681.71
2800	1974.54
3500	2523.36
4200	3594.59
4900	3820.86
5600	3165.49
6300	3978.15
7000	3912.54
7700	3410.81
8400	3177.03
9100	4101.51
9800	4019.07
10500	3817.32
11200	3811.66
11900	2261.14
12600	4253.66
13300	3861.25
14000	3119.58
14700	3249.8
15400	3156.14
16100	5063.58
16800	4021.12
17500	4071.39
18200	3926.05
18900	5295.88
19600	4961.1
20300	4659.83
21000	4319.56
21700	5629.02
22400	5130.07
23100	6875.07
23800	12267.1
24500	12987.2
25200	24176.7
25900	7862.71
26600	6120.9
27300	5197.88
28000	5886.66
28700	6428.14
29400	7785.17
30100	11626.3
30800	22028.5
31500	37026.5
32200	24230.3
32900	30167.8
33600	18528
34300	15395.4
35000	13039.2
35700	9512.17
36400	7380.59
37100	5364.73
37800	3910.78
38500	3889.58
39200	4260.2
39900	3447.19
40600	4350.85
41300	2689.56
42000	3340.31
42700	3515.97
43400	2856.39
44100	2558.34
44800	2733.22
45500	1988.34
46200	2319.76
46900	3547.25
47600	4945.63
48300	6389.71
49000	6740.12
49700	7766.03
50400	7359.36
51100	5728.98
51800	5552.88
52500	6216.64
53200	6324.39
53900	6555.31
54600	8309.14
55300	10448.6
56000	9109.1
56700	7836.07
57400	8053.42
58100	7039.2
58800	7267.75
59500	7012
60200	9308.83
60900	7149.46
61600	8023.27
62300	7618.46
63000	8896.68
63700	6994.03
64400	7470.83
65100	8134.07
65800	6577.86
66500	7567.05
67200	9172.56
67900	8831.54
68600	8480.58
69300	8287.53
70000	6544.29
70700	6799.54
71400	7248.29
72100	7198.61
72800	5070.83
73500	6418.98
74200	6665.39
74900	5860.41
75600	5633.85
76300	6357.22
77000	5943.42
77700	6162.36
78400	5413.34
79100	7355.54
79800	13159.9
80500	15919
81200	7999.41
81900	5828.22
82600	6182.95
83300	11171.4
84000	6297.07
84700	5314.51
85400	4988
86100	5382.2
86800	5075.53
87500	5207.15
88200	5508.34
88900	5103.25
89600	4812.2
90300	5100.75
91000	4874.25
91700	4229.97
92400	5021.75
93100	5258.22
93800	5604.85
94500	5175.09
95200	5814.91
95900	5765.68
96600	4717.76
97300	5010.39
98000	4444.86
98700	5142.2
99400	5993.14
100100	5012.53
100800	4809.58
101500	5413.05
102200	5633.56
102900	5614.85
103600	5665.47
104300	5961.12
105000	7109.05
105700	6592.91
106400	7114.68
107100	5952.32
107800	5626.88
108500	5755.83
109200	5178.69
109900	5571.25
110600	6082.07
111300	4897.66
112000	5780.34
112700	16463.1
113400	9421.61
114100	7115.32
114800	5608.9
115500	5973.54
116200	5531.29
116900	8203.8
117600	6501.98
118300	4321.73
119000	4607.03
119700	4332.07
120400	4681.36
121100	4594.81
121800	4454.36
122500	5103.15
123200	5510.54
123900	4507.05
124600	4063.22
125300	5678.58
126000	4648.17
126700	4855.63
127400	6177.03
128100	15123.4
128800	7562.47
129500	5539.29
130200	4937.17
130900	4784.39
131600	4377.1
132300	4766.56
133000	5564.39
133700	4431.76
134400	4661.46
135100	4959.56
135800	5493.88
136500	6323.36
137200	5870.98
137900	4758.37
138600	4984.15
139300	4854.97
140000	5132.24
140700	5779.78
141400	4689.12
142100	4676.02
142800	5683.8
143500	5839.91
144200	4799.76
144900	4252.09
145600	5258.69
146300	5158.44
147000	4351.22
147700	5190.47
148400	5498.85
149100	5783.1
149800	4558.68
150500	8885.59
151200	5891.22
151900	4964.32
152600	4151.71
153300	4309.69
154000	5604.71
154700	5710.81
155400	5150.78
156100	6208.63
156800	4486.05
157500	4776.32
158200	5194.75
158900	5687.93
159600	5006.93
160300	4857.22
161000	4063.83
161700	5622.49
162400	7689.07
163100	11081.1
163800	6508.15
164500	5321.27
165200	5341.88
165900	5336.19
166600	5985.9
167300	4654.24
168000	5914.03
168700	6108.12
169400	6219.19
170100	5541.39
170800	5136.81
171500	5871.86
172200	5776.61
172900	5509.47
173600	5302.07
174300	5861.54
175000	4499.75
175700	5212.59
176400	4949.32
177100	5196.51
177800	4931.12
178500	5348.12
179200	5613.63
179900	5524.15
180600	5633
181300	5068.03
182000	8747.22
182700	11756.3
183400	7978.81
184100	6502.03
184800	5431.54
185500	6343.68
186200	5987.1
186900	6579.64
187600	5417.12
188300	5195.86
189000	6269.98
189700	6685.36
190400	6785.07
191100	6005.17
191800	5703.32
192500	4351.27
193200	3275.37
193900	3081.83
194600	3038.25
195300	2937.95
196000	3673.92
196700	3610.73
197400	2974.92
198100	2875.92
198800	3230.15
199500	2659.92
200200	2392.22
200900	3246.59
201600	3231.66
202300	2151.07
203000	1263.88
203700	977.3220
203900	1372.15