File: V6_SAXS/data/profiles/Gunier_Polymer.txt
0	17138.2
700	17251.6
1400	16826
2100	17376.1
2800	16617.4
3500	16993.7
4200	17014.8
4900	17435.4
5600	16993.5
6300	17183.7
7000	16675.8
7700	16959.3
8400	17291.6
9100	17042.6
9800	17222.3
10500	17050.2
11200	17452
11900	18254.3
12600	17811.4
13300	17603.4
14000	18025.7
14700	18100.9
15400	18607.4
16100	19131.2
16800	19593.6
17500	21489.7
18200	17868.8
18900	17893.6
19600	18379
20300	19232.7
21000	20055.9
21700	21089.6
22400	22720.8
23100	29115.6
23800	30510.1
24500	25203.2
25200	29026.9
25900	19103.5
26600	17844.5
27300	17723.5
28000	17987.6
28700	17473.4
29400	17841.3
30100	17450.6
30800	17220.5
31500	16916.6
32200	17240.6
32900	16834.6
33600	16430.9
34300	16738.4
35000	16544.6
35700	15619
36400	15742.2
37100	15616.2
37800	15090.4
38500	14999.8
39200	15083.7
39900	15507
40600	16828.9
41300	16094.2
42000	16576.4
42700	17011
43400	18428.9
44100	16826
44800	16231.1
45500	16772.1
46200	16295.1
46900	15900.4
47600	16134.1
48300	15547.3
49000	16323.5
49700	16062.7
50400	15954.4
51100	16477.2
51800	16795.3
52500	16764.5
53200	17073.7
53900	17519.2
54600	18091.6
55300	18230
56000	18310
56700	18673.2
57400	19386.9
58100	19506.4
58800	20583.9
59500	23551.6
60200	30292.1
60900	25674.4
61600	20024.8
62300	22101.1
63000	23446.6
63700	20464.4
64400	24794.1
65100	20391
65800	17532.5
66500	18462.5
67200	19107.9
67900	16607.5
68600	15263.1
69300	16522.6
70000	15943.1
70700	15341.6
71400	15787.9
72100	15189.7
72800	15078.6
73500	15993.8
74200	15675.8
74900	16877.5
75600	16063.9
76300	15772
77000	15752.9
77700	15435.1
78400	15252.8
79100	15394.2
79800	15369.4
80500	15327
81200	15051.3
81900	15417.1
82600	15503
83300	15325.8
84000	15400
84700	15865
85400	17879.5
86100	18088.6
86800	15667.1
87500	15522.1
88200	16192.3
88900	16539.7
89600	16634.7
90300	16251.3
91000	16508.3
91700	18555.1
92400	16743.3
93100	16811.4
93800	17771.2
94500	17228.6
95200	17932.4
95900	16666.9
96600	16906
97300	18101.6
98000	17142.8
98700	17288.9
99400	16532.1
100100	16215.8
100800	16833.2
101500	15512.2
102200	16034.7
102900	15397.1
103600	15964.4
104300	16681.2
105000	16041.6
105700	15879.4
106400	15324.3
107100	15799.2
107800	16305.7
108500	16230.9
109200	15174.4
109900	15588.6
110600	15213.9
111300	15210.6
112000	15597.4
112700	15996.4
113400	16700.2
114100	16893.9
114800	17216.6
115500	15449.5
116200	15233.7
116900	16159.4
117600	17288.1
118300	16927.8
119000	16322.7
119700	15940.6
120400	15913.4
121100	16083.1
121800	16267.2
122500	16474.6
123200	15916.9
123900	15871.4
124600	15540.3
125300	14950.9
126000	15430.2
126700	15274.7
127400	15673.9
128100	15733
128800	15784.8
129500	15705.5
130200	16009.5
130900	15236.2
131600	15737.5
132300	15806.6
133000	15677.1
133700	16043
134400	16271.5
135100	15961.2
135800	15399.1
136500	15793.6
137200	15180.1
137900	15448.3
138600	15060.2
139300	15665
140000	16171.3
140700	15351.9
141400	15811.2
142100	16100.9
142800	15726.1
143500	15428.7
144200	15643.4
144900	16042.8
145600	15737.3
146300	16008.1
147000	15250.2
147700	16129.4
148400	15813.9
149100	15804.4
149800	15832.2
150500	16496.1
151200	16541.9
151900	15763.7
152600	15386.3
153300	15922
154000	15829.1
154700	15958.6
155400	16172.3
156100	16062.8
156800	16496.2
157500	16603.8
158200	16486.5
158900	16116.9
159600	16271.7
160300	15704.4
161000	15738.3
161700	16392.3
162400	15680
163100	15704.5
163800	15782
164500	15787.7
165200	15725.4
165900	15624.9
166600	15781.1
167300	15842.1
168000	15817.3
168700	15862.1
169400	15864.3
170100	15869.5
170800	15881.8
171500	16307.5
172200	16094.2
172900	15710.5
173600	15938.2
174300	16314.7
175000	16536.7
175700	16228
176400	16091.3
177100	16504.7
177800	15716.9
178500	16573.1
179200	16245.4
179900	16194
180600	15729.2
181300	16285.5
182000	15941.7
182700	16275.4
183400	16146.9
184100	15496.7
184200	15054.9